TITLE	WT-TTR. Gdn Unfold. 990710
DATA TYPE	
ORIGIN	JASCO
OWNER	
DATE	100/01/11
TIME	15:35:13
SPECTROMETER/DATA SYSTEM	
RESOLUTION	
DELTAX	-0.5
XUNITS	
YUNITS	
1.00000
1.00000
FIRSTX	430.0000
LASTX	200.0000
NPOINTS	461
FIRSTY	461
MAXY	-0.00034
MINY	-0.01373
430.0000	-0.00120637
429.5000	-0.00120218
429.0000	-0.00120289
428.5000	-0.00120646
428.0000	-0.00120236
427.5000	-0.00119565
427.0000	-0.00118656
426.5000	-0.00117625
426.0000	-0.00117054
425.5000	-0.00116657
425.0000	-0.00116918
424.5000	-0.00117181
424.0000	-0.00117405
423.5000	-0.00116957
423.0000	-0.00116738
422.5000	-0.0011592
422.0000	-0.00114967
421.5000	-0.00115201
421.0000	-0.00114902
420.5000	-0.00113948
420.0000	-0.00113034
419.5000	-0.00111915
419.0000	-0.00110076
418.5000	-0.00109666
418.0000	-0.00109326
417.5000	-0.00108174
417.0000	-0.00108086
416.5000	-0.00107477
416.0000	-0.00106871
415.5000	-0.00107684
415.0000	-0.00107998
414.5000	-0.00108396
414.0000	-0.00108037
413.5000	-0.00107817
413.0000	-0.00108176
412.5000	-0.00108103
412.0000	-0.00107953
411.5000	-0.00107554
411.0000	-0.00106824
410.5000	-0.00105786
410.0000	-0.00106471
409.5000	-0.00107649
409.0000	-0.00108088
408.5000	-0.00108472
408.0000	-0.00108308
407.5000	-0.00107851
407.0000	-0.00107084
406.5000	-0.00107473
406.0000	-0.0010751
405.5000	-0.00107366
405.0000	-0.00107204
404.5000	-0.00106431
404.0000	-0.00104936
403.5000	-0.00103653
403.0000	-0.00103001
402.5000	-0.00102029
402.0000	-0.0010132
401.5000	-0.00101744
401.0000	-0.00101631
400.5000	-0.0010083
400.0000	-0.00101175
399.5000	-9.9649E-04
399.0000	-9.76353E-04
398.5000	-9.65636E-04
398.0000	-9.54665E-04
397.5000	-9.5798E-04
397.0000	-9.60873E-04
396.5000	-9.61669E-04
396.0000	-9.54437E-04
395.5000	-9.43717E-04
395.0000	-9.43184E-04
394.5000	-9.41636E-04
394.0000	-9.35794E-04
393.5000	-9.36458E-04
393.0000	-9.32793E-04
392.5000	-9.32846E-04
392.0000	-9.34282E-04
391.5000	-9.39006E-04
391.0000	-9.41786E-04
390.5000	-9.30272E-04
390.0000	-9.306E-04
389.5000	-9.30473E-04
389.0000	-9.24403E-04
388.5000	-9.26112E-04
388.0000	-9.3129E-04
387.5000	-9.28424E-04
387.0000	-9.32534E-04
386.5000	-9.32786E-04
386.0000	-9.29686E-04
385.5000	-9.31457E-04
385.0000	-9.2964E-04
384.5000	-9.25603E-04
384.0000	-9.3465E-04
383.5000	-9.32901E-04
383.0000	-9.39499E-04
382.5000	-9.4603E-04
382.0000	-9.32878E-04
381.5000	-9.30285E-04
381.0000	-9.28272E-04
380.5000	-9.19281E-04
380.0000	-9.16275E-04
379.5000	-9.06265E-04
379.0000	-9.01251E-04
378.5000	-8.95187E-04
378.0000	-8.88857E-04
377.5000	-8.81083E-04
377.0000	-8.69813E-04
376.5000	-8.67185E-04
376.0000	-8.69863E-04
375.5000	-8.61703E-04
375.0000	-8.5874E-04
374.5000	-8.59278E-04
374.0000	-8.46799E-04
373.5000	-8.41868E-04
373.0000	-8.48237E-04
372.5000	-8.42518E-04
372.0000	-8.36983E-04
371.5000	-8.40774E-04
371.0000	-8.40129E-04
370.5000	-8.38034E-04
370.0000	-8.42866E-04
369.5000	-8.26885E-04
369.0000	-8.21236E-04
368.5000	-8.00616E-04
368.0000	-7.93941E-04
367.5000	-7.85208E-04
367.0000	-7.81782E-04
366.5000	-7.88653E-04
366.0000	-7.96236E-04
365.5000	-8.07671E-04
365.0000	-8.12717E-04
364.5000	-8.11556E-04
364.0000	-8.01574E-04
363.5000	-7.92524E-04
363.0000	-7.91751E-04
362.5000	-7.93919E-04
362.0000	-7.98319E-04
361.5000	-8.08808E-04
361.0000	-7.98586E-04
360.5000	-7.90814E-04
360.0000	-7.85003E-04
359.5000	-7.72773E-04
359.0000	-7.62556E-04
358.5000	-7.58517E-04
358.0000	-7.48764E-04
357.5000	-7.41626E-04
357.0000	-7.40672E-04
356.5000	-7.42692E-04
356.0000	-7.39789E-04
355.5000	-7.37071E-04
355.0000	-7.32382E-04
354.5000	-7.24862E-04
354.0000	-7.2998E-04
353.5000	-7.294E-04
353.0000	-7.28223E-04
352.5000	-7.3047E-04
352.0000	-7.23396E-04
351.5000	-7.17854E-04
351.0000	-7.06877E-04
350.5000	-6.99876E-04
350.0000	-6.89813E-04
349.5000	-6.86403E-04
349.0000	-6.85979E-04
348.5000	-6.78839E-04
348.0000	-6.762E-04
347.5000	-6.73114E-04
347.0000	-6.69932E-04
346.5000	-6.60506E-04
346.0000	-6.57143E-04
345.5000	-6.49935E-04
345.0000	-6.36768E-04
344.5000	-6.26397E-04
344.0000	-6.20547E-04
343.5000	-6.12253E-04
343.0000	-6.02739E-04
342.5000	-6.01728E-04
342.0000	-5.83075E-04
341.5000	-5.67065E-04
341.0000	-5.63897E-04
340.5000	-5.52975E-04
340.0000	-5.57672E-04
339.5000	-5.58382E-04
339.0000	-5.56608E-04
338.5000	-5.63777E-04
338.0000	-5.54483E-04
337.5000	-5.48223E-04
337.0000	-5.42717E-04
336.5000	-5.35981E-04
336.0000	-5.25901E-04
335.5000	-5.29522E-04
335.0000	-5.30729E-04
334.5000	-5.35804E-04
334.0000	-5.33117E-04
333.5000	-5.25363E-04
333.0000	-5.19623E-04
332.5000	-5.09451E-04
332.0000	-5.14181E-04
331.5000	-5.16561E-04
331.0000	-5.20551E-04
330.5000	-5.25467E-04
330.0000	-5.27457E-04
329.5000	-5.21597E-04
329.0000	-5.06672E-04
328.5000	-4.96553E-04
328.0000	-4.83987E-04
327.5000	-4.76377E-04
327.0000	-4.69258E-04
326.5000	-4.6366E-04
326.0000	-4.5619E-04
325.5000	-4.55038E-04
325.0000	-4.62283E-04
324.5000	-4.67657E-04
324.0000	-4.72316E-04
323.5000	-4.7283E-04
323.0000	-4.53748E-04
322.5000	-4.45396E-04
322.0000	-4.36681E-04
321.5000	-4.24355E-04
321.0000	-4.21648E-04
320.5000	-4.15769E-04
320.0000	-4.19737E-04
319.5000	-4.16477E-04
319.0000	-4.10809E-04
318.5000	-4.03085E-04
318.0000	-3.82502E-04
317.5000	-3.71672E-04
317.0000	-3.67063E-04
316.5000	-3.6447E-04
316.0000	-3.72943E-04
315.5000	-3.70579E-04
315.0000	-3.74453E-04
314.5000	-3.70696E-04
314.0000	-3.66177E-04
313.5000	-3.67281E-04
313.0000	-3.65684E-04
312.5000	-3.62617E-04
312.0000	-3.60885E-04
311.5000	-3.49791E-04
311.0000	-3.46843E-04
310.5000	-3.42438E-04
310.0000	-3.46698E-04
309.5000	-3.54144E-04
309.0000	-3.54576E-04
308.5000	-3.56661E-04
308.0000	-3.56223E-04
307.5000	-3.53855E-04
307.0000	-3.55084E-04
306.5000	-3.59324E-04
306.0000	-3.65372E-04
305.5000	-3.68181E-04
305.0000	-3.76023E-04
304.5000	-3.80802E-04
304.0000	-3.91553E-04
303.5000	-4.02304E-04
303.0000	-4.26628E-04
302.5000	-4.55235E-04
302.0000	-4.87939E-04
301.5000	-5.2706E-04
301.0000	-5.67637E-04
300.5000	-6.07172E-04
300.0000	-6.50434E-04
299.5000	-7.01064E-04
299.0000	-7.67391E-04
298.5000	-8.27704E-04
298.0000	-9.11604E-04
297.5000	-9.93149E-04
297.0000	-0.00108054
296.5000	-0.00117818
296.0000	-0.00128165
295.5000	-0.00139679
295.0000	-0.00151912
294.5000	-0.00163522
294.0000	-0.00178619
293.5000	-0.00193716
293.0000	-0.00210285
292.5000	-0.00228107
292.0000	-0.00245159
291.5000	-0.00261478
291.0000	-0.00278658
290.5000	-0.00296834
290.0000	-0.0031563
289.5000	-0.0033451
289.0000	-0.00353908
288.5000	-0.00373658
288.0000	-0.00394257
287.5000	-0.00415113
287.0000	-0.00436387
286.5000	-0.00457948
286.0000	-0.00479614
285.5000	-0.00503265
285.0000	-0.00526893
284.5000	-0.00550984
284.0000	-0.00574484
283.5000	-0.00596781
283.0000	-0.0061736
282.5000	-0.00638513
282.0000	-0.00658388
281.5000	-0.00678507
281.0000	-0.00700422
280.5000	-0.00720938
280.0000	-0.00742585
279.5000	-0.00763595
279.0000	-0.00783244
278.5000	-0.0080356
278.0000	-0.00822869
277.5000	-0.00840752
277.0000	-0.00858825
276.5000	-0.00875997
276.0000	-0.0089506
275.5000	-0.00914832
275.0000	-0.00932931
274.5000	-0.00952691
274.0000	-0.0097112
273.5000	-0.00990158
273.0000	-0.0100742
272.5000	-0.0102445
272.0000	-0.0104206
271.5000	-0.010583
271.0000	-0.0107601
270.5000	-0.0109581
270.0000	-0.0111231
269.5000	-0.0112615
269.0000	-0.0114325
268.5000	-0.0115948
268.0000	-0.0117512
267.5000	-0.0119474
267.0000	-0.0121334
266.5000	-0.0122964
266.0000	-0.012453
265.5000	-0.0125906
265.0000	-0.0127407
264.5000	-0.0128867
264.0000	-0.013045
263.5000	-0.0131645
263.0000	-0.0132769
262.5000	-0.0133611
262.0000	-0.0134579
261.5000	-0.01353
261.0000	-0.0136044
260.5000	-0.0136379
260.0000	-0.0136535
259.5000	-0.0136874
259.0000	-0.0137318
258.5000	-0.0137253
258.0000	-0.0137198
257.5000	-0.0136739
257.0000	-0.0136435
256.5000	-0.0135647
256.0000	-0.0135292
255.5000	-0.013504
255.0000	-0.0134525
254.5000	-0.0134054
254.0000	-0.0133318
253.5000	-0.0132112
253.0000	-0.0130755
252.5000	-0.0129513
252.0000	-0.0127976
251.5000	-0.0126225
251.0000	-0.0124182
250.5000	-0.0122058
250.0000	-0.0119561
249.5000	-0.0117216
249.0000	-0.0115037
248.5000	-0.0112601
248.0000	-0.0110179
247.5000	-0.0107569
247.0000	-0.0104506
246.5000	-0.0101755
246.0000	-0.00990535
245.5000	-0.00961999
245.0000	-0.00934232
244.5000	-0.00907594
244.0000	-0.00878419
243.5000	-0.00852021
243.0000	-0.00826916
242.5000	-0.00801948
242.0000	-0.007768
241.5000	-0.00751186
241.0000	-0.00725182
240.5000	-0.00698609
240.0000	-0.00673728
239.5000	-0.00652214
239.0000	-0.00630011
238.5000	-0.00609966
238.0000	-0.00589066
237.5000	-0.00566776
237.0000	-0.00546263
236.5000	-0.00526481
236.0000	-0.00507153
235.5000	-0.00488804
235.0000	-0.00472928
234.5000	-0.00458048
234.0000	-0.00444997
233.5000	-0.00433657
233.0000	-0.00423073
232.5000	-0.00412972
232.0000	-0.00405469
231.5000	-0.0039894
231.0000	-0.00392977
230.5000	-0.00387327
230.0000	-0.00382111
229.5000	-0.00380626
229.0000	-0.00379286
228.5000	-0.00380872
228.0000	-0.00383694
227.5000	-0.00385152
227.0000	-0.00388484
226.5000	-0.00391346
226.0000	-0.00391164
225.5000	-0.00394279
225.0000	-0.00400262
224.5000	-0.00406895
224.0000	-0.00417425
223.5000	-0.00428972
223.0000	-0.00437663
222.5000	-0.00448636
222.0000	-0.00462521
221.5000	-0.00473518
221.0000	-0.00488322
220.5000	-0.00503765
220.0000	-0.00520258
219.5000	-0.00537948
219.0000	-0.00555734
218.5000	-0.00572704
218.0000	-0.00589634
217.5000	-0.00608183
217.0000	-0.00627001
216.5000	-0.00648582
216.0000	-0.00668572
215.5000	-0.00687623
215.0000	-0.00707497
214.5000	-0.00726318
214.0000	-0.00741942
213.5000	-0.00759792
213.0000	-0.00778706
212.5000	-0.00792874
212.0000	-0.00809938
211.5000	-0.00826432
211.0000	-0.0084154
210.5000	-0.00858987
210.0000	-0.00874824
209.5000	-0.0088756
209.0000	-0.00902426
208.5000	-0.00916606
208.0000	-0.00928534
207.5000	-0.00943698
207.0000	-0.00954953
206.5000	-0.00964326
206.0000	-0.00973883
205.5000	-0.00984227
205.0000	-0.00998966
204.5000	-0.0100913
204.0000	-0.0101674
203.5000	-0.010259
203.0000	-0.0103362
202.5000	-0.0104403
202.0000	-0.0105348
201.5000	-0.0106348
201.0000	-0.0107166
200.5000	-0.010797
200.0000	-0.0108469
